THORLABS (LIUCWHA),
Wavelength (nm),Relative intensity
199.97546,0
200.17692,0
200.37839,0
200.57989,0
200.7814,0
200.98293,0
201.18448,0
201.38605,0
201.58764,0
201.78925,0
201.99087,0
202.19252,0
202.39418,0
202.59586,0
202.79756,0
202.99928,0
203.20102,0
203.40278,0
203.60455,0
203.80635,0
204.00816,0
204.20999,0
204.41184,0
204.61371,0
204.8156,0
205.0175,0
205.21943,0
205.42137,0
205.62334,0
205.82532,0
206.02732,0
206.22934,0
206.43137,0
206.63343,0
206.83551,0
207.0376,0
207.23971,0
207.44184,0
207.64399,0
207.84616,0
208.04835,0
208.25055,0
208.45278,0
208.65502,0
208.85728,0
209.05956,0
209.26186,0
209.46418,0
209.66651,0
209.86887,0
210.07124,0
210.27363,0
210.47604,0
210.67847,0
210.88092,0
211.08338,0
211.28587,0
211.48837,0
211.69089,0
211.89343,0
212.09599,0
212.29857,0
212.50117,0
212.70378,0
212.90641,0
213.10907,0
213.31174,0
213.51442,0
213.71713,0
213.91986,0
214.1226,0
214.32537,0
214.52815,0
214.73095,0
214.93376,0
215.1366,0
215.33946,0
215.54233,0
215.74522,0
215.94813,0
216.15106,0
216.35401,0
216.55698,0
216.75996,0
216.96297,0
217.16599,0
217.36903,0
217.57209,0
217.77517,0
217.97826,0
218.18138,0
218.38451,0
218.58766,0
218.79083,0
218.99402,0
219.19722,0
219.40045,0
219.60369,0
219.80695,0
220.01023,0
220.21353,0
220.41685,0
220.62018,0
220.82354,0
221.02691,0
221.2303,0
221.43371,0
221.63713,0
221.84058,0
222.04404,0
222.24753,0
222.45103,0
222.65455,0
222.85808,0
223.06164,0
223.26521,0
223.46881,0
223.67242,0
223.87605,0
224.07969,0
224.28336,0
224.48704,0
224.69075,0
224.89447,0
225.0982,0
225.30196,0
225.50574,0
225.70953,0
225.91334,0
226.11717,0
226.32102,0
226.52489,0
226.72878,0
226.93268,0
227.1366,0
227.34054,0
227.5445,0
227.74848,0
227.95247,0
228.15649,0
228.36052,0
228.56457,0
228.76863,0
228.97272,0
229.17683,0
229.38095,0
229.58509,0
229.78925,0
229.99343,0
230.19762,0
230.40183,0
230.60607,0
230.81032,0
231.01459,0
231.21887,0
231.42318,0
231.6275,0
231.83184,0
232.0362,0
232.24058,0
232.44497,0
232.64939,0
232.85382,0
233.05827,0
233.26274,0
233.46722,0
233.67173,0
233.87625,0
234.08079,0
234.28535,0
234.48993,0
234.69452,0
234.89914,0
235.10377,0
235.30842,0
235.51309,0
235.71777,0
235.92248,0
236.1272,0
236.33194,0
236.5367,0
236.74147,0
236.94627,0
237.15108,0
237.35591,0
237.56076,0
237.76563,0
237.97051,0
238.17541,0
238.38033,0
238.58527,0
238.79023,0
238.9952,0
239.2002,0
239.40521,0
239.61024,0
239.81529,0
240.02035,0
240.22543,0
240.43053,0
240.63565,0
240.84079,0
241.04595,0
241.25112,0
241.45631,0
241.66152,0
241.86675,0
242.07199,0
242.27726,0
242.48254,0
242.68784,0
242.89315,0
243.09849,0
243.30384,0
243.50921,0
243.7146,0
243.92001,0
244.12543,0
244.33087,0
244.53633,0
244.74181,0
244.94731,0
245.15282,0
245.35836,0
245.56391,0
245.76948,0
245.97506,0
246.18067,0
246.38629,0
246.59193,0
246.79758,0
247.00326,0
247.20895,0
247.41466,0
247.62039,0
247.82614,0
248.03191,0
248.23769,0
248.44349,0
248.64931,0
248.85514,0
249.061,0
249.26687,0
249.47276,0
249.67867,0
249.88459,0
250.09054,0
250.2965,0
250.50248,0
250.70847,0
250.91449,0
251.12052,0
251.32657,0
251.53264,0
251.73872,0
251.94483,0
252.15095,0
252.35709,0
252.56325,0
252.76942,0
252.97561,0
253.18182,0
253.38805,0
253.5943,0
253.80056,0
254.00684,0
254.21314,0
254.41946,0
254.62579,0
254.83214,0
255.03851,0
255.2449,0
255.45131,0
255.65773,0
255.86417,0
256.07063,0
256.27711,0
256.4836,0
256.69011,0
256.89664,0
257.10319,0
257.30975,0
257.51634,0
257.72294,0
257.92955,0
258.13619,0
258.34284,0
258.54951,0
258.7562,0
258.96291,0
259.16963,0
259.37637,0
259.58313,0
259.78991,0
259.9967,0
260.20351,0
260.41034,0
260.61719,0
260.82406,0
261.03094,0
261.23784,0
261.44476,0
261.65169,0
261.85864,0
262.06561,0
262.2726,0
262.47961,0
262.68663,0
262.89367,0
263.10073,0
263.30781,0
263.5149,0
263.72201,0
263.92914,0
264.13629,0
264.34345,0
264.55063,0
264.75783,0
264.96505,0
265.17228,0
265.37953,0
265.5868,0
265.79409,0
266.00139,0
266.20871,0
266.41605,0
266.62341,0
266.83078,0
267.03817,0
267.24558,0
267.45301,0
267.66045,0
267.86791,0
268.07539,0
268.28289,0
268.4904,0
268.69793,0
268.90548,0
269.11305,0
269.32063,0
269.52823,0
269.73585,0
269.94349,0
270.15114,0
270.35881,0
270.5665,0
270.77421,0
270.98193,0
271.18967,0
271.39743,0
271.60521,0
271.813,0
272.02081,0
272.22864,0
272.43648,0
272.64434,0
272.85222,0
273.06012,0
273.26804,0
273.47597,0
273.68392,0
273.89188,0
274.09987,0
274.30787,0
274.51589,0
274.72392,0
274.93198,0
275.14005,0
275.34814,0
275.55624,0
275.76437,0
275.97251,0
276.18066,0
276.38884,0
276.59703,0
276.80524,0
277.01347,0
277.22171,0
277.42997,0
277.63825,0
277.84655,0
278.05486,0
278.26319,0
278.47154,0
278.6799,0
278.88829,0
279.09669,0
279.3051,0
279.51354,0
279.72199,0
279.93046,0
280.13894,0
280.34745,0
280.55597,0
280.7645,0
280.97306,0
281.18163,0
281.39022,0
281.59883,0
281.80745,0
282.01609,0
282.22475,0
282.43342,0
282.64212,0
282.85083,0
283.05955,0
283.2683,0
283.47706,0
283.68584,0
283.89463,0
284.10345,0
284.31228,0
284.52112,0
284.72999,0
284.93887,0
285.14777,0
285.35668,0
285.56562,0
285.77457,0
285.98353,0
286.19252,0
286.40152,0
286.61054,0
286.81957,0
287.02863,0
287.2377,0
287.44678,0
287.65589,0
287.86501,0
288.07415,0
288.2833,0
288.49248,0
288.70167,0
288.91087,0
289.1201,0
289.32934,0
289.53859,0
289.74787,0
289.95716,0
290.16647,0
290.3758,0
290.58514,0
290.7945,0
291.00388,0
291.21327,0
291.42268,0
291.63211,0
291.84156,0
292.05102,0
292.2605,0
292.47,0
292.67951,0
292.88904,0
293.09859,0
293.30815,0
293.51773,0
293.72733,0
293.93695,0
294.14658,0
294.35623,0
294.56589,0
294.77558,0
294.98528,0
295.195,0
295.40473,0
295.61448,0
295.82425,0
296.03403,0
296.24384,0
296.45366,0
296.66349,0
296.87334,0
297.08321,0
297.2931,0
297.503,0
297.71292,0
297.92286,0
298.13282,0
298.34279,0
298.55277,0
298.76278,0
298.9728,0
299.18284,0
299.3929,0
299.60297,0
299.81306,0
300.02316,0
300.23329,0
300.44343,0
300.65358,0
300.86376,0
301.07395,0
301.28416,0
301.49438,0
301.70462,0
301.91488,0
302.12515,0
302.33544,0
302.54575,0
302.75608,0
302.96642,0
303.17678,0
303.38715,0
303.59755,0
303.80796,0
304.01838,0
304.22882,0
304.43928,0
304.64976,0
304.86025,0
305.07076,0
305.28129,0
305.49183,0
305.70239,0
305.91297,0
306.12356,0
306.33417,0
306.5448,0
306.75545,0
306.96611,0
307.17678,0
307.38748,0
307.59819,0
307.80892,0
308.01966,0
308.23042,0
308.4412,0
308.65199,0
308.8628,0
309.07363,0
309.28448,0
309.49534,0
309.70622,0
309.91711,0
310.12802,0
310.33895,0
310.54989,0
310.76085,0
310.97183,0
311.18283,0
311.39384,0
311.60487,0
311.81591,0
312.02697,0
312.23805,0
312.44914,0
312.66025,0
312.87138,0
313.08253,0
313.29369,0
313.50486,0
313.71606,0
313.92727,0
314.1385,0
314.34974,0
314.561,0
314.77228,0
314.98357,0
315.19488,0
315.40621,0
315.61755,0
315.82891,0
316.04029,0
316.25168,0
316.46309,0
316.67452,0
316.88596,0
317.09742,0
317.3089,0
317.52039,0
317.7319,0
317.94342,0
318.15496,0
318.36652,0
318.5781,0
318.78969,0
319.0013,0
319.21292,0
319.42456,0
319.63622,0
319.84789,0
320.05958,0
320.27129,0
320.48302,0
320.69476,0
320.90651,0
321.11828,0
321.33007,0
321.54188,0
321.7537,0
321.96554,0
322.1774,0
322.38927,0
322.60116,0
322.81306,0
323.02498,0
323.23692,0
323.44887,0
323.66084,0
323.87283,0
324.08483,0
324.29685,0
324.50889,0
324.72094,0
324.93301,0
325.14509,0
325.35719,0
325.56931,0
325.78145,0
325.9936,0
326.20576,0
326.41795,0
326.63015,0
326.84236,0
327.0546,0
327.26684,0
327.47911,0
327.69139,0
327.90369,0
328.116,0
328.32833,0
328.54068,0
328.75304,0
328.96542,0
329.17782,0
329.39023,0
329.60266,0
329.8151,0
330.02756,0
330.24004,0
330.45253,0
330.66504,0
330.87757,0
331.09011,0
331.30267,0
331.51525,0
331.72784,0
331.94045,0
332.15307,0
332.36571,0
332.57837,0
332.79104,0
333.00373,0
333.21643,0
333.42915,0
333.64189,0
333.85464,0
334.06741,0
334.2802,0
334.493,0
334.70582,0
334.91866,0
335.13151,0
335.34437,0
335.55726,0
335.77016,0
335.98307,0
336.196,0
336.40895,0
336.62192,0
336.8349,0
337.04789,0
337.26091,0
337.47394,0
337.68698,0
337.90004,0
338.11312,0
338.32621,0
338.53932,0
338.75245,0
338.96559,0
339.17875,0
339.39192,0
339.60511,0
339.81832,0
340.03154,0
340.24478,0
340.45804,0
340.67131,0
340.88459,0
341.0979,0
341.31122,0
341.52455,0
341.7379,0
341.95127,0
342.16465,0
342.37805,0
342.59147,0
342.8049,0
343.01835,0
343.23181,0
343.44529,0
343.65879,0
343.8723,0
344.08583,0
344.29937,0
344.51293,0
344.72651,0
344.9401,0
345.15371,0
345.36733,0
345.58097,0
345.79463,0
346.0083,0
346.22199,0
346.43569,0
346.64941,0
346.86315,0
347.0769,0
347.29067,0
347.50446,0
347.71826,0
347.93207,0
348.1459,0
348.35975,0
348.57362,0
348.78749,0
349.00139,0
349.2153,0
349.42923,0
349.64317,0
349.85713,0
350.07111,0
350.2851,0
350.49911,0
350.71313,0
350.92717,0
351.14122,0
351.3553,0
351.56938,0
351.78349,0
351.9976,0
352.21174,0
352.42589,0
352.64005,0
352.85424,0
353.06844,0
353.28265,0
353.49688,0
353.71112,0
353.92539,0
354.13966,0
354.35396,0
354.56827,0
354.78259,0
354.99693,0
355.21129,0
355.42566,0
355.64005,0
355.85445,0
356.06887,0
356.28331,0
356.49776,0
356.71223,0
356.92671,0
357.14121,0
357.35572,0
357.57025,0
357.7848,0
357.99936,0
358.21394,0
358.42853,0
358.64314,0
358.85777,0
359.07241,0
359.28706,0
359.50173,0
359.71642,0
359.93113,0
360.14585,0
360.36058,0
360.57533,0
360.7901,0
361.00488,0
361.21968,0
361.43449,0
361.64932,0
361.86417,0
362.07903,0
362.29391,0
362.5088,0
362.72371,0
362.93863,0
363.15357,0
363.36852,0
363.58349,0
363.79848,0
364.01348,0
364.2285,0
364.44353,0
364.65858,0
364.87365,0
365.08873,0
365.30382,0
365.51894,0
365.73406,0
365.94921,0
366.16436,0
366.37954,0
366.59473,0
366.80993,0
367.02515,0
367.24039,0
367.45564,0
367.67091,0
367.88619,0
368.10149,0
368.31681,0
368.53214,0
368.74748,0
368.96285,0
369.17822,0
369.39361,0
369.60902,0
369.82445,0
370.03989,0
370.25534,0
370.47081,0
370.6863,0
370.9018,0
371.11731,0
371.33285,0
371.54839,0
371.76396,0
371.97954,0
372.19513,0
372.41074,0
372.62637,0
372.84201,0
373.05766,0
373.27334,0
373.48902,0
373.70473,0
373.92044,0
374.13618,0
374.35193,0
374.56769,0
374.78347,0
374.99927,0
375.21508,0
375.43091,0
375.64675,0
375.86261,0
376.07848,0
376.29437,0
376.51027,0
376.72619,0
376.94213,0
377.15808,0
377.37404,0
377.59002,0
377.80602,0
378.02203,0
378.23806,0
378.4541,0
378.67016,0
378.88623,0
379.10232,0
379.31842,0
379.53454,0
379.75068,0
379.96683,0
380.183,0
380.39918,0
380.61537,0
380.83158,0
381.04781,0
381.26405,0
381.48031,0
381.69659,0
381.91287,0
382.12918,0
382.3455,2.45E-05
382.56183,0
382.77818,0
382.99455,1.60E-05
383.21093,0
383.42732,0
383.64373,0
383.86016,0
384.0766,1.13E-05
384.29306,0
384.50953,0
384.72602,4.21E-05
384.94252,1.24E-05
385.15904,0
385.37557,0
385.59212,0
385.80868,7.99E-06
386.02526,0
386.24186,0
386.45847,0
386.67509,0
386.89173,0
387.10839,0
387.32506,0
387.54174,1.45E-05
387.75844,4.23E-05
387.97516,6.09E-06
388.19189,0
388.40864,0
388.6254,0
388.84218,0
389.05897,0
389.27578,4.86E-05
389.4926,0
389.70944,1.13E-05
389.92629,0
390.14316,0
390.36004,0
390.57694,0
390.79385,0
391.01078,0
391.22773,0
391.44469,0
391.66166,0
391.87865,0
392.09566,0
392.31268,0
392.52971,0
392.74676,0
392.96383,0
393.18091,1.46E-07
393.398,0
393.61511,1.46E-05
393.83224,0
394.04938,1.47E-06
394.26653,0
394.48371,0
394.70089,3.07E-05
394.91809,0
395.13531,0
395.35254,0
395.56979,0
395.78705,7.96E-06
396.00433,0
396.22162,0
396.43892,0
396.65625,0
396.87358,0
397.09094,0
397.3083,0
397.52568,1.91E-05
397.74308,0
397.96049,2.65E-05
398.17792,0
398.39536,0
398.61282,0
398.83029,0
399.04778,0
399.26528,0
399.4828,0
399.70033,0
399.91788,0
400.13544,0
400.35302,2.79E-05
400.57061,0
400.78822,0
401.00584,0
401.22348,2.88E-05
401.44113,0
401.6588,1.23E-05
401.87648,0
402.09418,0
402.31189,0
402.52962,0
402.74736,0
402.96512,3.32E-05
403.18289,6.61E-06
403.40067,0
403.61848,6.33E-06
403.83629,1.78E-05
404.05412,0
404.27197,0
404.48983,0
404.70771,5.66E-06
404.9256,0
405.14351,0
405.36143,0
405.57936,0
405.79731,1.94E-05
406.01528,0
406.23326,0
406.45126,1.83E-05
406.66927,4.09E-06
406.88729,1.00E-05
407.10533,0
407.32339,0
407.54146,0
407.75954,0
407.97764,0
408.19576,0
408.41389,1.75E-05
408.63203,8.61E-06
408.85019,0
409.06836,9.82E-06
409.28655,0
409.50476,2.26E-05
409.72297,1.13E-05
409.94121,3.92E-06
410.15946,0
410.37772,2.25E-05
410.596,8.39E-06
410.81429,0
411.0326,8.57E-07
411.25092,3.22E-05
411.46925,1.02E-05
411.68761,0
411.90597,1.34E-05
412.12435,0
412.34275,2.27E-05
412.56116,1.24E-05
412.77959,9.23E-06
412.99803,1.71E-07
413.21648,3.77E-05
413.43495,3.74E-05
413.65344,5.29E-07
413.87193,1.01E-05
414.09045,3.90E-05
414.30898,2.31E-05
414.52752,2.90E-05
414.74608,2.03E-05
414.96465,1.15E-06
415.18324,4.57E-05
415.40184,2.74E-05
415.62046,1.61E-05
415.83909,2.70E-05
416.05774,5.31E-05
416.2764,1.71E-05
416.49508,2.97E-05
416.71377,1.77E-05
416.93247,3.47E-05
417.15119,7.23E-06
417.36993,2.47E-05
417.58868,4.07E-05
417.80744,9.65E-05
418.02622,2.99E-05
418.24501,2.31E-05
418.46382,2.89E-05
418.68264,7.37E-05
418.90148,3.09E-05
419.12033,5.46E-05
419.3392,4.59E-05
419.55808,8.19E-05
419.77698,4.93E-05
419.99589,6.04E-05
420.21481,5.70E-05
420.43375,5.36E-05
420.65271,7.09E-05
420.87167,7.25E-05
421.09066,6.92E-05
421.30966,8.99E-05
421.52867,7.67E-05
421.7477,0.000105105
421.96674,9.63E-05
422.1858,7.95E-05
422.40487,0.000113306
422.62395,0.000109647
422.84305,9.67E-05
423.06217,8.33E-05
423.2813,0.000127771
423.50044,0.00011139
423.7196,0.000108937
423.93878,0.000132183
424.15796,0.000114404
424.37717,0.000133884
424.59638,0.000142924
424.81561,0.000124757
425.03486,0.000124822
425.25412,0.000165568
425.4734,0.000150867
425.69269,0.000122562
425.91199,0.000141955
426.13131,0.000184165
426.35064,0.000175599
426.56999,0.000179387
426.78935,0.000174695
427.00873,0.000191118
427.22812,0.000234813
427.44753,0.000200847
427.66695,0.000194002
427.88638,0.000214752
428.10583,0.000212277
428.3253,0.000241055
428.54477,0.000262085
428.76427,0.000246049
428.98377,0.000265141
429.2033,0.000260836
429.42283,0.000267552
429.64238,0.000279477
429.86195,0.000266756
430.08153,0.00029448
430.30112,0.000293403
430.52073,0.000313938
430.74035,0.000308298
430.95999,0.000345106
431.17964,0.000351455
431.39931,0.000381999
431.61899,0.000369773
431.83868,0.000384604
432.05839,0.00038456
432.27812,0.000372485
432.49785,0.000394182
432.71761,0.000397045
432.93737,0.000428837
433.15716,0.000417924
433.37695,0.00043777
433.59676,0.000451136
433.81659,0.000469519
434.03643,0.000489386
434.25628,0.000497307
434.47615,0.000507424
434.69603,0.000517196
434.91593,0.000514613
435.13584,0.000536181
435.35576,0.000528647
435.5757,0.00055848
435.79565,0.000586462
436.01562,0.000589949
436.23561,0.000598861
436.4556,0.000605942
436.67561,0.000620364
436.89564,0.00064318
437.11568,0.000648583
437.33573,0.000649659
437.5558,0.00067777
437.77589,0.000682506
437.99598,0.000747984
438.21609,0.000725964
438.43622,0.00073212
438.65636,0.000750524
438.87651,0.00080892
439.09668,0.000797813
439.31687,0.000826269
439.53706,0.000821512
439.75727,0.000845512
439.9775,0.000862129
440.19774,0.000904834
440.41799,0.000890542
440.63826,0.000925928
440.85855,0.000936476
441.07884,0.000973563
441.29915,0.000978664
441.51948,0.000994205
441.73982,0.001035252
441.96017,0.001081251
442.18054,0.001084049
442.40092,0.001113452
442.62132,0.001136892
442.84173,0.001140099
443.06216,0.001168081
443.2826,0.001162356
443.50305,0.001183515
443.72352,0.001199809
443.944,0.001201359
444.1645,0.001222991
444.38501,0.001260336
444.60553,0.001274349
444.82607,0.00130556
445.04662,0.001336878
445.26719,0.001354378
445.48777,0.001435698
445.70837,0.001480685
445.92898,0.00152184
446.1496,0.001568183
446.37024,0.001648298
446.59089,0.001654841
446.81156,0.001687107
447.03224,0.001697245
447.25293,0.001691455
447.47364,0.001685299
447.69436,0.001738443
447.9151,0.00174292
448.13585,0.001797765
448.35662,0.001841568
448.5774,0.001869507
448.79819,0.001891721
449.019,0.001933048
449.23982,0.001938193
449.46065,0.001957479
449.6815,0.001981629
449.90237,0.002000377
450.12325,0.002016349
450.34414,0.002017102
450.56504,0.002036647
450.78597,0.002040543
451.0069,0.002035011
451.22785,0.002058709
451.44881,0.002098659
451.66979,0.002152471
451.89078,0.002147477
452.11178,0.002125716
452.3328,0.002103933
452.55383,0.002104665
452.77488,0.002101328
452.99594,0.002023387
453.21702,0.002007588
453.43811,0.002059979
453.65921,0.00203303
453.88032,0.002042867
454.10146,0.001997622
454.3226,0.002014928
454.54376,0.002021429
454.76493,0.001961482
454.98612,0.001901213
455.20732,0.001917098
455.42854,0.001886361
455.64976,0.001893723
455.87101,0.001867161
456.09226,0.001848499
456.31354,0.001844991
456.53482,0.001812359
456.75612,0.001788833
456.97743,0.001760377
457.19876,0.001725206
457.4201,0.001674063
457.64145,0.001663064
457.86282,0.001620294
458.08421,0.001582411
458.3056,0.001533485
458.52701,0.001542999
458.74844,0.001512132
458.96988,0.001504771
459.19133,0.001475519
459.41279,0.001463917
459.63427,0.00142132
459.85577,0.001361481
460.07728,0.001349815
460.2988,0.00133959
460.52033,0.001301061
460.74188,0.001296498
460.96345,0.001280548
461.18502,0.001265954
461.40662,0.001267461
461.62822,0.001241674
461.84984,0.001201639
462.07147,0.001176282
462.29312,0.001145136
462.51478,0.00112148
462.73645,0.001109706
462.95814,0.001088462
463.17984,0.001079852
463.40156,0.001073351
463.62329,0.001043626
463.84503,0.00101573
464.06679,0.000987123
464.28856,0.000950725
464.51035,0.000928425
464.73215,0.000916996
464.95396,0.000942416
465.17579,0.000920763
465.39763,0.000911959
465.61948,0.000912669
465.84135,0.000887593
466.06323,0.000895794
466.28513,0.000872353
466.50704,0.000859718
466.72896,0.000846115
466.9509,0.000844113
467.17285,0.000843919
467.39481,0.000831586
467.61679,0.000817831
467.83878,0.000825214
468.06079,0.000805519
468.28281,0.000801989
468.50484,0.000784812
468.72689,0.000777021
468.94895,0.000771058
469.17103,0.000769293
469.39312,0.000735112
469.61522,0.000741849
469.83733,0.000730807
470.05946,0.00072831
470.28161,0.000705645
470.50376,0.000718366
470.72594,0.000694193
470.94812,0.000682678
471.17032,0.000651983
471.39253,0.000657106
471.61476,0.000642965
471.837,0.000636507
472.05925,0.000622064
472.28152,0.000635065
472.5038,0.000610505
472.72609,0.000594039
472.9484,0.000587517
473.17072,0.00058106
473.39305,0.000554584
473.6154,0.000563194
473.83777,0.000535965
474.06014,0.000537042
474.28253,0.000543413
474.50494,0.000531596
474.72735,0.000527097
474.94978,0.000521178
475.17223,0.000513838
475.39469,0.000510803
475.61716,0.000503355
475.83964,0.000498383
476.06214,0.000484952
476.28465,0.000481013
476.50718,0.000456561
476.72972,0.000466936
476.95227,0.000452686
477.17484,0.000451352
477.39742,0.000439556
477.62001,0.000443172
477.84262,0.000453375
478.06524,0.00043891
478.28788,0.000436349
478.51053,0.000433895
478.73319,0.000407118
478.95586,0.000405569
479.17855,0.000393838
479.40126,0.000390846
479.62397,0.000378125
479.8467,0.000407183
480.06945,0.000394978
480.2922,0.000393752
480.51497,0.000392503
480.73776,0.000391276
480.96056,0.000390049
481.18337,0.000388801
481.40619,0.000387574
481.62903,0.000386347
481.85188,0.000385099
482.07475,0.000383872
482.29763,0.000382645
482.52052,0.000381396
482.74342,0.000380169
482.96634,0.000378943
483.18928,0.000377716
483.41222,0.000376467
483.63518,0.00037524
483.85815,0.000374013
484.08114,0.000372765
484.30414,0.000371538
484.52715,0.000370311
484.75018,0.000369063
484.97322,0.000367836
485.19628,0.000366609
485.41934,0.00036536
485.64242,0.000364134
485.86552,0.000362907
486.08863,0.000361658
486.31175,0.000360431
486.53488,0.000359204
486.75803,0.000357956
486.98119,0.000356729
487.20437,0.000355502
487.42756,0.000354254
487.65076,0.000353027
487.87397,0.0003518
488.0972,0.000350551
488.32044,0.000349325
488.5437,0.000348098
488.76697,0.000346849
488.99025,0.000345622
489.21354,0.000344395
489.43685,0.000343147
489.66018,0.00034192
489.88351,0.000340693
490.10686,0.000339445
490.33022,0.000338218
490.5536,0.000338218
490.77699,0.00032597
491.00039,0.00033105
491.22381,0.00032117
491.44724,0.000325088
491.67068,0.000320395
491.89413,0.000347323
492.1176,0.000337034
492.34109,0.000343168
492.56458,0.000343082
492.78809,0.000336991
493.01161,0.000351326
493.23515,0.000339703
493.4587,0.000341059
493.68226,0.000349238
493.90584,0.000357224
494.12943,0.000372485
494.35303,0.000370871
494.57664,0.000376424
494.80027,0.000387359
495.02391,0.000364306
495.24757,0.000375778
495.47124,0.000389963
495.69492,0.000395258
495.91862,0.000397109
496.14232,0.000387445
496.36605,0.000393601
496.58978,0.000415857
496.81353,0.000402534
497.03729,0.000411316
497.26107,0.000401651
497.48485,0.000410519
497.70866,0.000430753
497.93247,0.000411057
498.1563,0.000412026
498.38014,0.000418118
498.60399,0.000428385
498.82786,0.00042959
499.05174,0.000435165
499.27564,0.000450814
499.49954,0.000451653
499.72346,0.000451954
499.9474,0.000441558
500.17134,0.000457529
500.3953,0.000455269
500.61928,0.000467517
500.84326,0.000462953
501.06726,0.000464439
501.29127,0.000476256
501.5153,0.000473888
501.73934,0.000500105
501.96339,0.000494014
502.18745,0.000494961
502.41153,0.000500148
502.63562,0.000504259
502.85973,0.000516227
503.08385,0.000527334
503.30798,0.000520683
503.53212,0.000533813
503.75628,0.000537407
503.98045,0.000542789
504.20463,0.000555574
504.42883,0.000558308
504.65304,0.000554218
504.87726,0.000562268
505.1015,0.000563388
505.32575,0.000585709
505.55001,0.000590875
505.77428,0.000603768
505.99857,0.000607772
506.22287,0.000604586
506.44719,0.000606523
506.67151,0.000614466
506.89585,0.000628349
507.12021,0.000631793
507.34457,0.000638165
507.56895,0.000634893
507.79335,0.000650584
508.01775,0.000667051
508.24217,0.000665802
508.4666,0.000676156
508.69105,0.00067777
508.91551,0.000689609
509.13998,0.000698929
509.36446,0.000696604
509.58896,0.000704698
509.81347,0.00071109
510.03799,0.000710423
510.26253,0.000722692
510.48708,0.00072069
510.71164,0.000735478
510.93621,0.000746649
511.1608,0.000748931
511.3854,0.00075668
511.61002,0.000767012
511.83464,0.000766366
512.05928,0.00076544
512.28394,0.000769788
512.5086,0.000775514
512.73328,0.000777882
512.95797,0.000801645
513.18268,0.000792389
513.4074,0.000804357
513.63213,0.000813354
513.85687,0.000827754
514.08163,0.000826355
514.3064,0.0008284
514.53118,0.000830144
514.75597,0.000841229
514.98078,0.000839614
515.2056,0.000843984
515.43044,0.000850979
515.65529,0.000873968
515.88015,0.000864562
516.10502,0.000891123
516.3299,0.000879371
516.5548,0.000893232
516.77972,0.000889466
517.00464,0.000916759
517.22958,0.000914736
517.45453,0.000920741
517.67949,0.000913272
517.90447,0.00092313
518.12946,0.000933936
518.35446,0.000949799
518.57947,0.000946571
518.8045,0.000961487
519.02954,0.000964931
519.25459,0.000976921
519.47966,0.000976641
519.70474,0.000980946
519.92983,0.000977459
520.15493,0.001004149
520.38005,0.001008347
520.60518,0.001014158
520.83033,0.001008863
521.05548,0.00101799
521.28065,0.001018399
521.50583,0.0010235
521.73103,0.001032476
521.95623,0.001031335
522.18145,0.001054173
522.40669,0.001060221
522.63193,0.001062998
522.85719,0.00105258
523.08246,0.001033552
523.30774,0.001063471
523.53304,0.001068637
523.75835,0.001082865
523.98367,0.0010746
524.20901,0.001078022
524.43436,0.001092422
524.65972,0.001101376
524.88509,0.001092573
525.11048,0.001088053
525.33587,0.001081014
525.56129,0.001103335
525.78671,0.001103077
526.01215,0.001111342
526.2376,0.001109642
526.46306,0.001133642
526.68853,0.001122428
526.91402,0.001113258
527.13952,0.001105165
527.36504,0.001096512
527.59056,0.001103787
527.8161,0.001117046
528.04165,0.001118725
528.26722,0.00112839
528.49279,0.001131941
528.71838,0.001124193
528.94398,0.001137409
529.1696,0.001124989
529.39523,0.001148257
529.62087,0.001138033
529.84652,0.00114081
530.07218,0.001161237
530.29786,0.001176089
530.52355,0.001178801
530.74926,0.001188186
530.97497,0.001172903
531.2007,0.001202198
531.42644,0.001179102
531.6522,0.001176325
531.87796,0.001171224
532.10374,0.00119262
532.32953,0.00118274
532.55534,0.001177746
532.78116,0.001184677
533.00698,0.001185064
533.23283,0.001174087
533.45868,0.001168534
533.68455,0.001166037
533.91043,0.001172752
534.13632,0.001162356
534.36223,0.001154951
534.58815,0.001158116
534.81408,0.001168899
535.04002,0.001165735
535.26597,0.001163927
535.49194,0.001169373
535.71792,0.001174905
535.94392,0.001181879
536.16992,0.001183924
536.39594,0.001177466
536.62197,0.001188595
536.84801,0.001202736
537.07407,0.001196257
537.30014,0.001198431
537.52622,0.001199335
537.75231,0.001213778
537.97842,0.001221075
538.20454,0.001227985
538.43067,0.001212896
538.65681,0.001240168
538.88297,0.001242837
539.10914,0.001252135
539.33532,0.001243719
539.56151,0.001253922
539.78772,0.001257947
540.01394,0.001255407
540.24017,0.001242751
540.46641,0.001255429
540.69267,0.001263651
540.91893,0.001250284
541.14522,0.001262101
541.37151,0.001258227
541.59781,0.001271206
541.82413,0.001255622
542.05046,0.001256914
542.27681,0.001254439
542.50316,0.001261154
542.72953,0.001251361
542.95591,0.001256699
543.1823,0.001253599
543.40871,0.001262553
543.63513,0.001246066
543.86156,0.001267978
544.088,0.001268322
544.31445,0.001285154
544.54092,0.001282227
544.7674,0.001283777
544.99389,0.001283734
545.2204,0.001280225
545.44691,0.001288598
545.67344,0.001285649
545.89999,0.001287479
546.12654,0.001284272
546.35311,0.001293183
546.57968,0.001293549
546.80628,0.001289158
547.03288,0.001286833
547.2595,0.001288964
547.48612,0.00128905
547.71276,0.001284186
547.93942,0.001286188
548.16608,0.001286166
548.39276,0.001286898
548.61945,0.001294432
548.84615,0.00128382
549.07287,0.00128608
549.29959,0.001284444
549.52633,0.001285822
549.75308,0.001284444
549.97985,0.001301879
550.20662,0.00130231
550.43341,0.00130655
550.66021,0.001305302
550.88703,0.001294087
551.11385,0.001299705
551.34069,0.001291117
551.56754,0.001302568
551.7944,0.001299081
552.02128,0.001305538
552.24816,0.001299253
552.47506,0.001313847
552.70197,0.001314148
552.9289,0.001312964
553.15583,0.00131361
553.38278,0.001318389
553.60974,0.00132603
553.83671,0.001324329
554.0637,0.001315526
554.29069,0.001317011
554.5177,0.001318884
554.74473,0.001319099
554.97176,0.001321036
555.1988,0.001322521
555.42586,0.001320024
555.65293,0.001326353
555.88002,0.00132123
556.10711,0.00131686
556.33422,0.001315009
556.56134,0.001314019
556.78847,0.001314923
557.01561,0.001309994
557.24277,0.001301922
557.46993,0.001312598
557.69711,0.001312491
557.92431,0.001305
558.15151,0.001298005
558.37873,0.001302137
558.60596,0.001309176
558.8332,0.001303752
559.06045,0.001291978
559.28771,0.001295099
559.51499,0.001293872
559.74228,0.001293097
559.96958,0.00128608
560.1969,0.001288362
560.42422,0.001286812
560.65156,0.001278546
560.87891,0.001266643
561.10627,0.001284509
561.33365,0.001271228
561.56103,0.001276006
561.78843,0.00127831
562.01584,0.00127874
562.24326,0.001285348
562.4707,0.001282313
562.69815,0.001270496
562.9256,0.001275619
563.15308,0.001278697
563.38056,0.001281258
563.60805,0.001281366
563.83556,0.001283734
564.06308,0.001282507
564.29061,0.001288663
564.51815,0.00127775
564.74571,0.001287221
564.97328,0.001291375
565.20086,0.001292042
565.42845,0.001288663
565.65605,0.001297251
565.88367,0.001297101
566.11129,0.001282765
566.33893,0.001277621
566.56659,0.001276179
566.79425,0.001281861
567.02192,0.001282292
567.24961,0.001270367
567.47731,0.001288319
567.70502,0.001277513
567.93275,0.001282335
568.16048,0.001267935
568.38823,0.001265502
568.61599,0.001248218
568.84376,0.001238984
569.07155,0.001239716
569.29934,0.00124768
569.52715,0.001258571
569.75497,0.001239178
569.9828,0.001233237
570.21064,0.001221549
570.4385,0.0012217
570.66636,0.001219439
570.89424,0.001217309
571.12213,0.001217115
571.35004,0.001221248
571.57795,0.001229621
571.80588,0.001222883
572.03382,0.001206395
572.26177,0.001203899
572.48973,0.001207106
572.71771,0.001217933
572.94569,0.001198474
573.17369,0.001216986
573.4017,0.001208613
573.62972,0.00121225
573.85776,0.001215221
574.0858,0.001203856
574.31386,0.001208914
574.54193,0.00120646
574.77001,0.001205298
574.99811,0.001191221
575.22621,0.001199056
575.45433,0.001215135
575.68246,0.001200196
575.9106,0.001199917
576.13875,0.001203726
576.36692,0.001189154
576.59509,0.001202134
576.82328,0.001194686
577.05148,0.00120011
577.27969,0.0011994
577.50792,0.001193567
577.73615,0.001191307
577.9644,0.001174388
578.19266,0.001178973
578.42093,0.00118091
578.64921,0.001181082
578.87751,0.001183536
579.10581,0.001187346
579.33413,0.001169933
579.56246,0.001170557
579.7908,0.001177638
580.01916,0.001173592
580.24752,0.001161753
580.4759,0.001166639
580.70429,0.001145739
580.93269,0.001152993
581.1611,0.001153014
581.38952,0.001153918
581.61796,0.001141434
581.84641,0.001160526
582.07487,0.001149333
582.30334,0.001149915
582.53182,0.001150517
582.76032,0.00115493
582.98882,0.001154973
583.21734,0.001148128
583.44587,0.001151572
583.67441,0.001169803
583.90297,0.001152498
584.13153,0.001164788
584.36011,0.00115211
584.58869,0.001161818
584.81729,0.001157685
585.04591,0.001156523
585.27453,0.001140831
585.50317,0.001139583
585.73181,0.001126345
585.96047,0.001130327
586.18914,0.001124774
586.41782,0.001135708
586.64652,0.001123267
586.87522,0.001136978
587.10394,0.001132566
587.33267,0.001125032
587.56141,0.001126345
587.79016,0.001115669
588.01892,0.001102496
588.2477,0.001108845
588.47648,0.001113086
588.70528,0.001116379
588.93409,0.001101592
589.16291,0.00111074
589.39175,0.001106671
589.62059,0.001115647
589.84945,0.001101398
590.07831,0.001101893
590.30719,0.001105466
590.53609,0.001095091
590.76499,0.001095586
590.9939,0.00111046
591.22283,0.001088053
591.45177,0.001092939
591.68072,0.001089839
591.90968,0.001089796
592.13865,0.001076279
592.36763,0.001081638
592.59663,0.001069993
592.82563,0.001072641
593.05465,0.001064117
593.28368,0.00106896
593.51272,0.001074923
593.74178,0.001074557
593.97084,0.001059145
594.19992,0.001059446
594.42901,0.001051783
594.65811,0.001044078
594.88722,0.001036566
595.11634,0.001035468
595.34547,0.001039364
595.57462,0.001038072
595.80377,0.001037168
596.03294,0.001039773
596.26212,0.001042011
596.49131,0.001037405
596.72052,0.00103
596.94973,0.001028192
597.17896,0.001019948
597.40819,0.001022488
597.63744,0.001016332
597.8667,0.00102378
598.09597,0.001017473
598.32526,0.001023629
598.55455,0.001021369
598.78386,0.001017387
599.01318,0.001017043
599.2425,0.001011834
599.47185,0.001003396
599.7012,0.001007141
599.93056,0.001004623
600.15993,0.000996422
600.38932,0.000993064
600.61872,0.001005742
600.84813,0.000996982
601.07755,0.000998919
601.30698,0.000994011
601.53642,0.000992784
601.76588,0.00098835
601.99534,0.000977911
602.22482,0.000975586
602.45431,0.00097296
602.68381,0.000978901
602.91332,0.000969408
603.14284,0.000967277
603.37238,0.000968655
603.60192,0.000968763
603.83148,0.000970312
604.06105,0.000960842
604.29063,0.000960196
604.52022,0.000954341
604.74982,0.000950682
604.97944,0.000940651
605.20906,0.000952468
605.4387,0.000942567
605.66835,0.000944741
605.898,0.000937315
606.12768,0.000940436
606.35736,0.000926746
606.58705,0.000928253
606.81675,0.000930018
607.04647,0.000923023
607.2762,0.000917814
607.50594,0.000923561
607.73569,0.000915123
607.96545,0.000924357
608.19522,0.000916027
608.425,0.000909032
608.6548,0.000912583
608.8846,0.000904124
609.11442,0.000898872
609.34425,0.000902359
609.57409,0.000895665
609.80394,0.000894007
610.0338,0.000889595
610.26368,0.000879241
610.49356,0.000876185
610.72346,0.000881867
610.95336,0.000862043
611.18328,0.000877584
611.41321,0.000870244
611.64315,0.000862818
611.87311,0.000865573
612.10307,0.000861075
612.33304,0.000860859
612.56303,0.000850549
612.79303,0.000854187
613.02304,0.000852228
613.25306,0.000843123
613.48309,0.000847062
613.71313,0.000840239
613.94318,0.000842692
614.17325,0.000838926
614.40332,0.000832554
614.63341,0.000828529
614.86351,0.000829024
615.09362,0.000825516
615.32374,0.000811955
615.55387,0.000810599
615.78401,0.000819123
616.01416,0.000814151
616.24433,0.000809674
616.4745,0.000812881
616.70469,0.000810922
616.93489,0.000807844
617.1651,0.000806983
617.39532,0.000799492
617.62555,0.000799514
617.85579,0.000784963
618.08605,0.000793293
618.31631,0.000778527
618.54659,0.000785114
618.77688,0.000777193
619.00717,0.000788859
619.23748,0.000762836
619.4678,0.000787352
619.69814,0.000776569
619.92848,0.000764967
620.15883,0.000763589
620.3892,0.000762319
620.61957,0.000758617
620.84996,0.000757627
621.08036,0.000732055
621.31077,0.000758509
621.54119,0.000748995
621.77162,0.000757584
622.00206,0.000746025
622.23252,0.000746412
622.46298,0.000738147
622.69345,0.000740041
622.92394,0.000736726
623.15444,0.000725706
623.38495,0.000729838
623.61547,0.00072732
623.846,0.000715029
624.07654,0.000724113
624.30709,0.000728138
624.53766,0.000715223
624.76823,0.000705451
624.99882,0.000713781
625.22941,0.000702674
625.46002,0.000704654
625.69064,0.000697271
625.92127,0.00070657
626.15191,0.000692041
626.38256,0.000690513
626.61322,0.000700522
626.8439,0.000698262
627.07458,0.000692084
627.30528,0.000681451
627.53598,0.000682398
627.7667,0.000684873
627.99743,0.000678889
628.22817,0.000680418
628.45892,0.000671227
628.68968,0.000674175
628.92045,0.000667266
629.15123,0.000667245
629.38203,0.000665888
629.61283,0.000656848
629.84365,0.000657386
630.07447,0.000659237
630.30531,0.000645763
630.53616,0.000651187
630.76702,0.000646279
630.99789,0.000644536
631.22877,0.000647313
631.45966,0.000642556
631.69057,0.000636916
631.92148,0.000635496
632.1524,0.000620127
632.38334,0.000637153
632.61429,0.000626455
632.84524,0.000621505
633.07621,0.000630868
633.30719,0.000625766
633.53818,0.000617996
633.76918,0.000612227
634.00019,0.000603445
634.23121,0.000612701
634.46225,0.000591628
634.69329,0.000605641
634.92435,0.000599721
635.15541,0.000600346
635.38649,0.000596923
635.61758,0.000593286
635.84867,0.000592984
636.07978,0.000579122
636.3109,0.000582093
636.54203,0.000584202
636.77317,0.000573074
637.00433,0.000585515
637.23549,0.000573483
637.46666,0.00057486
637.69785,0.000567908
637.92904,0.000556586
638.16025,0.00056059
638.39146,0.000560934
638.62269,0.000554283
638.85393,0.000547782
639.08518,0.00055142
639.31644,0.000543391
639.54771,0.000542487
639.77899,0.000538936
640.01028,0.000542014
640.24159,0.000530326
640.4729,0.000522512
640.70422,0.000531746
640.93556,0.000513386
641.1669,0.000514828
641.39826,0.000520252
641.62963,0.000517626
641.86101,0.000512245
642.09239,0.000497888
642.32379,0.000510566
642.5552,0.00050822
642.78662,0.00049156
643.01805,0.000496145
643.2495,0.000489773
643.48095,0.000501913
643.71241,0.00050497
643.94389,0.000491258
644.17537,0.000482885
644.40687,0.00048211
644.63837,0.000474362
644.86989,0.00047038
645.10142,0.00047759
645.33295,0.000468055
645.5645,0.00046883
645.79606,0.000467818
646.02763,0.000462545
646.25921,0.000463728
646.4908,0.000458261
646.7224,0.000459617
646.95402,0.000455743
647.18564,0.00045331
647.41727,0.000456475
647.64892,0.000464116
647.88057,0.000457034
648.11224,0.000444765
648.34391,0.000451911
648.5756,0.000438975
648.8073,0.000437856
649.03901,0.000437253
649.27072,0.00042931
649.50245,0.000432367
649.73419,0.000433529
649.96594,0.000435057
650.1977,0.000431075
650.42947,0.000432604
650.66126,0.000431915
650.89305,0.000421475
651.12485,0.000417622
651.35666,0.00042578
651.58849,0.000423779
651.82032,0.000416805
652.05217,0.000421002
652.28402,0.000418376
652.51589,0.00041293
652.74776,0.000410455
652.97965,0.000420033
653.21155,0.000402512
653.44346,0.000405698
653.67538,0.000405504
653.90731,0.000412069
654.13924,0.000412026
654.37119,0.000403502
654.60316,0.000431829
654.83513,0.000436306
655.06711,0.000428557
655.2991,0.000440094
655.5311,0.000428019
655.76312,0.000435961
655.99514,0.000429892
656.22717,0.000421626
656.45922,0.000413791
656.69127,0.000427179
656.92334,0.000429009
657.15541,0.000421734
657.3875,0.000399563
657.61959,0.000396442
657.8517,0.000381698
658.08382,0.000381009
658.31595,0.000368094
658.54809,0.000368438
658.78023,0.000362282
659.01239,0.000367857
659.24456,0.000349109
659.47674,0.000364543
659.70893,0.000360388
659.94113,0.000349841
660.17334,0.000358968
660.40557,0.000341834
660.6378,0.000352962
660.87004,0.000346225
661.10229,0.000343319
661.33455,0.000343276
661.56683,0.000344481
661.79911,0.000344029
662.03141,0.000347043
662.26371,0.000343448
662.49603,0.000337787
662.72835,0.0003247
662.96069,0.000331502
663.19303,0.000334516
663.42539,0.000318264
663.65775,0.00032922
663.89013,0.00032442
664.12252,0.000326078
664.35492,0.000326422
664.58732,0.000316844
664.81974,0.000325561
665.05217,0.000325368
665.28461,0.000314605
665.51706,0.000303606
665.74952,0.000315315
665.98199,0.000313012
666.21447,0.000309611
666.44696,0.000305479
666.67946,0.000302272
666.91197,0.000301174
667.14449,0.000305371
667.37702,0.000301776
667.60956,0.000298053
667.84211,0.000295147
668.07467,0.000294824
668.30725,0.000299689
668.53983,0.000290777
668.77242,0.000292263
669.00502,0.000291983
669.23764,0.000294092
669.47026,0.000285482
669.7029,0.000287506
669.93554,0.000285762
670.16819,0.000279692
670.40086,0.000280532
670.63353,0.000281629
670.86622,0.000276141
671.09891,0.000276205
671.33162,0.000275732
671.56433,0.000268628
671.79706,0.000272847
672.02979,0.000273687
672.26254,0.000257866
672.4953,0.000264732
672.72806,0.000266928
672.96084,0.000265012
673.19362,0.0002606
673.42642,0.000260858
673.65923,0.000262558
673.89205,0.000259007
674.12487,0.000252033
674.35771,0.000256639
674.59056,0.000257349
674.82342,0.000252162
675.05628,0.00024747
675.28916,0.000246544
675.52205,0.000239721
675.75495,0.000241077
675.98786,0.000241981
676.22077,0.00024607
676.4537,0.000238257
676.68664,0.000236535
676.91959,0.000234598
677.15255,0.000236686
677.38552,0.000238558
677.6185,0.000235846
677.85149,0.000236212
678.08449,0.000239505
678.3175,0.000226849
678.55051,0.000237762
678.78354,0.000232876
679.01658,0.000228571
679.24963,0.000222329
679.48269,0.000225192
679.71576,0.00022969
679.94884,0.000228205
680.18193,0.000218949
680.41503,0.000222802
680.64814,0.000221683
680.88126,0.000216818
681.11439,0.000209457
681.34753,0.000216345
681.58068,0.000215979
681.81384,0.000214946
682.04701,0.000209887
682.28019,0.000214795
682.51338,0.000204894
682.74658,0.000203861
682.97979,0.000204549
683.21301,0.000204226
683.44624,0.000195552
683.67948,0.00020244
683.91273,0.000199792
684.14599,0.000189697
684.37926,0.000201385
684.61254,0.000192087
684.84583,0.000190817
685.07913,0.000198522
685.31244,0.000199297
685.54576,0.000197941
685.77909,0.000190386
686.01243,0.000193443
686.24578,0.000189999
686.47914,0.00019327
686.71251,0.000189848
686.94589,0.000202483
687.17928,0.00018466
687.41268,0.000189116
687.64609,0.000179688
687.87951,0.000182917
688.11294,0.000186167
688.34638,0.000183756
688.57982,0.000177686
688.81328,0.00017872
689.04675,0.000170777
689.28023,0.000174243
689.51372,0.000180248
689.74722,0.000171789
689.98073,0.000173618
690.21424,0.000172822
690.44777,0.000167828
690.68131,0.000170411
690.91486,0.000177493
691.14842,0.000164535
691.38198,0.00017265
691.61556,0.000170239
691.84915,0.000166386
692.08274,0.000167979
692.31635,0.00015571
692.54997,0.000158852
692.78359,0.000168818
693.01723,0.000168818
693.25088,0.000153557
693.48453,0.000150027
693.7182,0.000162684
693.95187,0.000162469
694.18556,0.000151017
694.41925,0.000143032
694.65296,0.000150824
694.88667,0.000151383
695.1204,0.000148284
695.35413,0.000148348
695.58788,0.0001567
695.82163,0.00014258
696.0554,0.000143979
696.28917,0.00014499
696.52295,0.000142515
696.75675,0.000148886
696.99055,0.00014639
697.22436,0.00014372
697.45818,0.000139609
697.69202,0.000140793
697.92586,0.000136144
698.15971,0.000144711
698.39357,0.000138598
698.62744,0.000129686
698.86132,0.000137306
699.09521,0.000144668
699.32911,0.000132958
699.56302,0.000128804
699.79694,0.000134314
700.03087,0.000139157
700.26481,0.000131903
700.49876,0.000120711
700.73272,0.000131107
700.96669,0.000126415
701.20066,0.000131516
701.43465,0.000124693
701.66865,0.000123078
701.90266,0.00012112
702.13667,0.000119613
702.3707,0.000125704
702.60473,0.000132721
702.83878,0.000119333
703.07284,0.000124477
703.3069,0.000119807
703.54097,0.000125984
703.77506,0.000120689
704.00915,0.000115824
704.24326,0.000118472
704.47737,0.000112467
704.71149,0.000117245
704.94562,0.000118128
705.17977,0.000106418
705.41392,0.000113177
705.64808,0.000118214
705.88225,0.000111885
706.11643,0.00010545
706.35062,0.00011647
706.58482,0.000116513
706.81903,0.00011703
707.05325,0.00010842
707.28748,0.00010362
707.52171,0.000112768
707.75596,0.000105729
707.99022,0.000101102
708.22449,0.000110852
708.45876,0.000113177
708.69305,0.000115394
708.92734,9.80E-05
709.16165,9.55E-05
709.39596,0.000102006
709.63029,0.000100606
709.86462,0.00010659
710.09896,0.000100822
710.33332,0.000102716
710.56768,0.000102501
710.80205,9.41E-05
711.03643,0.000102199
711.27082,9.92E-05
711.50522,9.03E-05
711.73963,0.000106806
711.97405,8.99E-05
712.20848,0.000102049
712.44292,9.99E-05
712.67737,9.08E-05
712.91182,9.65E-05
713.14629,9.69E-05
713.38077,8.07E-05
713.61525,0.000103211
713.84975,9.54E-05
714.08425,8.61E-05
714.31876,9.09E-05
714.55329,8.10E-05
714.78782,8.41E-05
715.02236,8.75E-05
715.25692,8.90E-05
715.49148,9.27E-05
715.72605,9.12E-05
715.96063,8.69E-05
716.19522,8.18E-05
716.42982,8.12E-05
716.66443,7.80E-05
716.89904,8.97E-05
717.13367,7.51E-05
717.36831,8.47E-05
717.60295,7.91E-05
717.83761,8.90E-05
718.07227,8.78E-05
718.30695,7.69E-05
718.54163,7.82E-05
718.77633,8.43E-05
719.01103,8.38E-05
719.24574,8.54E-05
719.48046,7.82E-05
719.71519,8.05E-05
719.94993,8.39E-05
720.18468,7.43E-05
720.41944,8.27E-05
720.65421,7.40E-05
720.88899,7.61E-05
721.12377,8.54E-05
721.35857,7.81E-05
721.59337,7.74E-05
721.82819,7.09E-05
722.06301,6.24E-05
722.29785,7.89E-05
722.53269,6.92E-05
722.76754,7.68E-05
723.0024,6.73E-05
723.23727,6.98E-05
723.47216,6.83E-05
723.70704,6.46E-05
723.94194,6.39E-05
724.17685,7.51E-05
724.41177,6.85E-05
724.6467,6.88E-05
724.88163,7.01E-05
725.11658,6.74E-05
725.35153,6.87E-05
725.58649,5.69E-05
725.82147,6.52E-05
726.05645,7.61E-05
726.29144,6.59E-05
726.52644,6.53E-05
726.76145,6.59E-05
726.99647,6.38E-05
727.2315,5.99E-05
727.46654,6.03E-05
727.70158,6.52E-05
727.93664,6.16E-05
728.17171,6.58E-05
728.40678,6.23E-05
728.64187,6.03E-05
728.87696,6.04E-05
729.11206,6.12E-05
729.34717,7.15E-05
729.58229,6.37E-05
729.81742,6.63E-05
730.05256,5.19E-05
730.28771,5.43E-05
730.52287,5.89E-05
730.75804,5.86E-05
730.99321,4.37E-05
731.2284,6.18E-05
731.46359,5.70E-05
731.69879,5.45E-05
731.93401,5.45E-05
732.16923,6.38E-05
732.40446,4.59E-05
732.6397,5.28E-05
732.87495,4.91E-05
733.11021,4.74E-05
733.34547,6.38E-05
733.58075,4.72E-05
733.81604,5.53E-05
734.05133,5.39E-05
734.28664,5.97E-05
734.52195,5.35E-05
734.75727,5.01E-05
734.9926,5.33E-05
735.22794,4.40E-05
735.46329,4.86E-05
735.69865,5.73E-05
735.93402,5.25E-05
736.1694,4.70E-05
736.40478,4.87E-05
736.64018,4.41E-05
736.87558,4.17E-05
737.111,5.43E-05
737.34642,4.44E-05
737.58185,4.10E-05
737.81729,4.52E-05
738.05274,4.91E-05
738.2882,4.90E-05
738.52367,4.46E-05
738.75914,5.82E-05
738.99463,4.43E-05
739.23012,4.94E-05
739.46563,4.93E-05
739.70114,4.67E-05
739.93666,4.21E-05
740.17219,4.54E-05
740.40773,4.77E-05
740.64328,4.73E-05
740.87884,3.82E-05
741.11441,4.31E-05
741.34998,3.60E-05
741.58557,4.43E-05
741.82116,3.96E-05
742.05676,3.93E-05
742.29238,4.56E-05
742.528,4.31E-05
742.76363,4.04E-05
742.99927,4.01E-05
743.23491,3.90E-05
743.47057,4.29E-05
743.70624,3.32E-05
743.94191,4.52E-05
744.1776,2.94E-05
744.41329,3.40E-05
744.64899,4.03E-05
744.8847,3.62E-05
745.12042,3.41E-05
745.35615,4.14E-05
745.59189,4.12E-05
745.82763,3.56E-05
746.06339,3.45E-05
746.29915,4.14E-05
746.53493,3.41E-05
746.77071,4.04E-05
747.0065,4.16E-05
747.2423,3.51E-05
747.47811,4.09E-05
747.71393,3.36E-05
747.94975,3.73E-05
748.18559,4.28E-05
748.42143,3.17E-05
748.65728,3.51E-05
748.89315,4.14E-05
749.12902,3.28E-05
749.3649,3.27E-05
749.60079,3.30E-05
749.83668,2.24E-05
750.07259,4.03E-05
750.30851,2.44E-05
750.54443,2.52E-05
750.78036,3.09E-05
751.0163,3.55E-05
751.25226,3.46E-05
751.48821,3.97E-05
751.72418,3.38E-05
751.96016,2.78E-05
752.19615,3.25E-05
752.43214,2.63E-05
752.66814,2.82E-05
752.90416,4.20E-05
753.14018,2.66E-05
753.37621,3.46E-05
753.61225,2.88E-05
753.8483,3.76E-05
754.08435,1.91E-05
754.32042,2.27E-05
754.55649,3.47E-05
754.79257,1.97E-05
755.02867,3.26E-05
755.26477,2.16E-05
755.50087,3.00E-05
755.73699,2.89E-05
755.97312,3.57E-05
756.20925,2.42E-05
756.4454,2.01E-05
756.68155,2.63E-05
756.91771,2.15E-05
757.15388,1.59E-05
757.39006,2.31E-05
757.62625,1.83E-05
757.86245,2.65E-05
758.09865,2.85E-05
758.33487,1.94E-05
758.57109,2.20E-05
758.80732,2.82E-05
759.04356,2.23E-05
759.27981,3.07E-05
759.51607,3.26E-05
759.75233,2.41E-05
759.98861,2.23E-05
760.22489,2.61E-05
760.46118,2.47E-05
760.69748,2.63E-05
760.93379,1.85E-05
761.17011,2.74E-05
761.40644,2.52E-05
761.64278,1.47E-05
761.87912,1.87E-05
762.11547,2.28E-05
762.35183,2.54E-05
762.5882,1.30E-05
762.82458,2.61E-05
763.06097,2.67E-05
763.29737,1.79E-05
763.53377,2.20E-05
763.77019,3.01E-05
764.00661,2.73E-05
764.24304,2.26E-05
764.47948,2.18E-05
764.71593,2.25E-05
764.95238,2.73E-05
765.18885,1.19E-05
765.42532,1.76E-05
765.6618,6.50E-06
765.89829,1.36E-05
766.13479,2.62E-05
766.3713,1.52E-05
766.60782,2.52E-05
766.84434,1.67E-05
767.08088,1.68E-05
767.31742,2.01E-05
767.55397,2.38E-05
767.79053,1.54E-05
768.0271,1.16E-05
768.26367,2.78E-05
768.50026,1.76E-05
768.73685,2.89E-05
768.97346,1.24E-05
769.21007,2.36E-05
769.44669,2.62E-05
769.68331,1.54E-05
769.91995,1.59E-05
770.15659,1.87E-05
770.39325,1.45E-05
770.62991,1.55E-05
770.86658,3.25E-06
771.10326,5.79E-06
771.33995,3.42E-05
771.57664,1.48E-05
771.81335,1.75E-05
772.05006,8.85E-06
772.28678,2.02E-05
772.52351,1.37E-05
772.76025,1.49E-05
772.997,2.67E-05
773.23375,1.81E-05
773.47052,2.64E-05
773.70729,5.99E-07
773.94407,1.80E-05
774.18086,7.62E-06
774.41765,4.95E-06
774.65446,1.46E-05
774.89127,2.30E-05
775.1281,7.53E-06
775.36493,1.83E-05
775.60177,1.43E-05
775.83862,1.50E-06
776.07547,6.13E-06
776.31234,1.19E-05
776.54921,3.64E-06
776.78609,1.49E-05
777.02298,1.42E-05
777.25988,1.31E-05
777.49679,1.01E-05
777.7337,1.94E-05
777.97063,1.65E-05
778.20756,2.27E-05
778.4445,7.19E-06
778.68145,8.35E-06
778.91841,0
779.15537,1.43E-05
779.39235,9.32E-06
779.62933,2.80E-06
779.86632,3.96E-06
780.10332,3.25E-05
780.34033,1.58E-05
780.57734,0
780.81437,8.35E-06
781.0514,1.76E-06
781.28844,1.92E-05
781.52549,1.86E-05
781.76255,4.86E-06
781.99961,1.02E-05
782.23669,1.34E-05
782.47377,7.68E-06
782.71086,1.00E-05
782.94796,1.18E-05
783.18507,1.75E-05
783.42218,1.18E-05
783.6593,1.07E-05
783.89644,6.65E-06
784.13358,0
784.37073,1.04E-05
784.60788,1.11E-05
784.84505,1.93E-05
785.08222,4.48E-06
785.3194,5.27E-06
785.55659,1.47E-05
785.79379,1.06E-05
786.031,8.18E-06
786.26821,1.96E-05
786.50544,0
786.74267,1.91E-05
786.97991,5.98E-06
787.21716,1.02E-05
787.45441,2.88E-06
787.69168,1.44E-05
787.92895,4.80E-07
788.16623,1.41E-05
788.40352,3.68E-06
788.64081,1.55E-05
788.87812,0
789.11543,3.77E-06
789.35275,2.67E-05
789.59008,4.71E-06
789.82742,4.58E-06
790.06477,3.83E-06
790.30212,1.03E-05
790.53949,9.66E-06
790.77686,0
791.01424,0
791.25162,2.08E-06
791.48902,5.83E-06
791.72642,1.65E-05
791.96383,1.31E-05
792.20125,0
792.43868,0
792.67612,0
792.91356,0
793.15101,1.20E-05
793.38847,4.71E-06
793.62594,2.30E-06
793.86342,4.54E-06
794.1009,2.56E-06
794.3384,2.05E-06
794.5759,3.90E-06
794.81341,2.74E-07
795.05092,4.37E-06
795.28845,1.14E-05
795.52598,1.05E-05
795.76352,0
796.00107,8.42E-06
796.23863,1.30E-05
796.4762,0
796.71377,4.46E-06
796.95135,1.18E-05
797.18894,1.36E-05
797.42654,0
797.66415,0
797.90176,8.46E-06
798.13938,0
798.37701,0
798.61465,1.61E-05
798.8523,2.48E-06
799.08995,1.75E-05
799.32761,0
799.56528,5.34E-06
799.80296,1.25E-06
800.04065,1.02E-05
800.27834,0
800.51605,0
800.75376,0
800.99147,1.13E-05
801.2292,1.34E-05
801.46694,0
801.70468,6.54E-06
801.94243,0
802.18019,0
802.41795,0
802.65573,1.04E-05
802.89351,5.85E-06
803.1313,0
803.3691,1.05E-05
803.6069,5.32E-06
803.84472,6.52E-06
804.08254,2.88E-06
804.32037,0
804.55821,0
804.79605,8.22E-06
805.03391,0
805.27177,1.52E-05
805.50964,6.39E-06
805.74752,0
805.9854,1.10E-05
806.2233,1.17E-05
806.4612,0
806.69911,1.52E-06
806.93702,9.84E-06
807.17495,0
807.41288,0
807.65082,0
807.88877,4.71E-06
808.12673,0
808.36469,7.88E-07
808.60266,0
808.84064,0
809.07863,0
809.31663,0
809.55463,1.81E-05
809.79264,0
810.03066,2.23E-05
810.26869,1.96E-06
810.50672,4.18E-06
810.74477,4.48E-06
810.98282,0
811.22088,0
811.45894,0
811.69702,4.99E-06
811.9351,0
812.17319,0
812.41129,0
812.64939,1.11E-05
812.88751,1.56E-05
813.12563,4.41E-06
813.36376,1.18E-05
813.60189,0
813.84004,4.99E-06
814.07819,0
814.31635,1.51E-05
814.55452,5.66E-08
814.79269,2.66E-05
815.03088,6.82E-07
815.26907,4.11E-06
815.50727,4.78E-06
815.74547,7.71E-06
815.98369,0
816.22191,1.08E-06
816.46014,0
816.69838,0
816.93662,2.02E-05
817.17488,1.12E-06
817.41314,0
817.65141,1.10E-05
817.88968,0
818.12797,4.91E-06
818.36626,0
818.60456,7.03E-07
818.84286,0
819.08118,0
819.3195,0
819.55783,0
819.79617,5.79E-06
820.03451,0
820.27287,0
820.51123,0
820.7496,1.25E-05
820.98797,0
821.22636,3.79E-06
821.46475,0
821.70315,0
821.94155,0
822.17997,1.16E-05
822.41839,0
822.65682,5.92E-06
822.89526,0
823.1337,4.74E-06
823.37216,0
823.61062,0
823.84908,0
824.08756,1.88E-05
824.32604,7.30E-06
824.56453,5.40E-06
824.80303,0
825.04154,0
825.28005,0
825.51857,0
825.7571,4.16E-07
825.99564,2.67E-06
826.23418,0
826.47273,0
826.71129,0
826.94986,1.27E-05
827.18843,0
827.42701,2.28E-06
827.6656,0
827.9042,0
828.1428,7.96E-06
828.38141,0
828.62003,0
828.85866,0
829.0973,6.09E-06
829.33594,0
829.57459,0
829.81324,0
830.05191,0
830.29058,0
830.52926,0
830.76795,0
831.00664,1.79E-05
831.24534,2.03E-06
831.48405,0
831.72277,6.65E-06
831.96149,2.93E-06
832.20023,4.28E-06
832.43897,0
832.67771,3.93E-07
832.91647,0
833.15523,7.96E-06
833.394,0
833.63277,1.34E-06
833.87156,0
834.11035,0
834.34915,0
834.58796,6.18E-06
834.82677,1.65E-06
835.06559,0
835.30442,0
835.54326,0
835.7821,1.15E-05
836.02095,4.26E-06
836.25981,4.07E-06
836.49867,0
836.73755,0
836.97643,1.44E-05
837.21532,9.88E-07
837.45421,1.26E-06
837.69311,0
837.93203,0
838.17094,2.82E-06
838.40987,2.00E-06
838.6488,0
838.88774,7.17E-06
839.12669,0
839.36564,0
839.6046,0
839.84357,0
840.08255,0
840.32153,1.17E-07
840.56052,0
840.79952,0
841.03853,3.95E-07
841.27754,0
841.51656,0
841.75559,4.78E-06
841.99462,1.60E-06
842.23367,4.46E-06
842.47272,0
842.71177,0
842.95084,4.76E-06
843.18991,0
843.42899,0
843.66807,6.89E-06
843.90717,5.92E-06
844.14627,0
844.38538,1.11E-05
844.62449,0
844.86361,6.46E-06
845.10274,1.51E-06
845.34188,8.78E-06
845.58102,6.38E-07
845.82018,0
846.05934,0
846.2985,2.29E-05
846.53767,8.65E-06
846.77685,0
847.01604,9.17E-06
847.25524,0
847.49444,0
847.73365,2.10E-06
847.97287,0
848.21209,1.63E-06
848.45132,0
848.69056,8.29E-06
848.9298,0
849.16906,0
849.40832,2.10E-06
849.64758,0
849.88686,0
850.12614,0
850.36543,0
850.60472,8.80E-06
850.84403,0
851.08334,1.47E-06
851.32265,0
851.56198,0
851.80131,0
852.04065,0
852.27999,0
852.51935,0
852.75871,0
852.99807,7.00E-06
853.23745,1.41E-05
853.47683,0
853.71622,0
853.95561,0
854.19502,1.10E-06
854.43443,0
854.67384,1.90E-06
854.91327,7.71E-06
855.1527,3.98E-06
855.39214,0
855.63158,1.30E-06
855.87103,0
856.11049,0
856.34996,0
856.58943,0
856.82892,0
857.0684,0
857.3079,0
857.5474,3.83E-06
857.78691,3.19E-06
858.02642,8.50E-06
858.26595,0
858.50548,0
858.74502,4.24E-06
858.98456,7.62E-06
859.22411,0
859.46367,0
859.70323,2.73E-06
859.94281,0
860.18239,2.35E-06
860.42197,2.58E-06
860.66156,1.63E-07
860.90116,2.54E-06
861.14077,6.29E-06
861.38039,0
861.62001,0
861.85964,0
862.09927,0
862.33891,2.71E-06
862.57856,0
862.81822,0
863.05788,0
863.29755,0
863.53723,0
863.77691,6.95E-06
864.0166,0
864.2563,0
864.49601,0
864.73572,1.78E-07
864.97544,1.21E-08
865.21516,0
865.45489,5.62E-06
865.69463,2.01E-05
865.93438,0
866.17413,0
866.41389,3.83E-06
866.65366,0
866.89343,0
867.13321,0
867.373,0
867.6128,0
867.8526,2.76E-07
868.09241,0
868.33222,0
868.57204,0
868.81187,0
869.05171,9.45E-06
869.29155,0
869.5314,1.43E-06
869.77126,0
870.01112,0
870.25099,0
870.49087,0
870.73075,4.50E-06
870.97064,0
871.21054,0
871.45044,0
871.69035,0
871.93027,0
872.1702,0
872.41013,0
872.65007,0
872.89001,0
873.12996,0
873.36992,0
873.60989,0
873.84986,3.12E-05
874.08984,0
874.32982,0
874.56982,0
874.80982,0
875.04982,6.13E-06
875.28983,0
875.52985,0
875.76988,0
876.00991,0
876.24995,0
876.49,0
876.73005,0
876.97011,0
877.21018,0
877.45025,0
877.69033,0
877.93042,8.20E-06
878.17051,8.61E-06
878.41061,0
878.65072,0
878.89084,0
879.13096,0
879.37108,0
879.61122,0
879.85136,0
880.0915,8.23E-07
880.33166,0
880.57182,0
880.81199,0
881.05216,0
881.29234,0
881.53253,0
881.77272,1.76E-05
882.01292,0
882.25313,4.84E-06
882.49334,0
882.73356,0
882.97379,0
883.21402,0
883.45426,0
883.69451,7.95E-07
883.93476,0
884.17502,0
884.41529,0
884.65556,8.59E-06
884.89584,0
885.13613,2.15E-05
885.37642,0
885.61672,0
885.85703,1.01E-05
886.09734,0
886.33766,0
886.57799,0
886.81832,0
887.05866,0
887.29901,0
887.53936,0
887.77972,0
888.02008,0
888.26045,2.24E-06
888.50083,0
888.74122,0
888.98161,0
889.22201,0
889.46241,0
889.70282,0
889.94324,0
890.18366,7.28E-06
890.42409,0
890.66453,0
890.90497,0
891.14542,0
891.38588,0
891.62634,0
891.86681,0
892.10729,0
892.34777,0
892.58826,0
892.82876,0
893.06926,0
893.30977,0
893.55028,0
893.7908,0
894.03133,0
894.27186,4.28E-06
894.51241,0
894.75295,0
894.99351,2.34E-05
895.23407,0
895.47463,0
895.7152,0
895.95578,0
896.19637,0
896.43696,0
896.67756,9.88E-06
896.91816,0
897.15878,0
897.39939,0
897.64002,0
897.88065,0
898.12128,0
898.36193,5.04E-06
898.60258,0
898.84323,0
899.08389,0
899.32456,0
899.56524,0
899.80592,0
900.04661,0
900.2873,0
900.528,0
900.76871,0
901.00942,8.20E-06
901.25014,0
901.49087,0
901.7316,0
901.97234,0
902.21308,2.39E-06
902.45383,0
902.69459,0
902.93535,0
903.17612,0
903.4169,0
903.65768,0
903.89847,0
904.13926,9.97E-06
904.38006,0
904.62087,0
904.86169,0
905.10251,0
905.34333,0
905.58416,0
905.825,0
906.06585,6.22E-06
906.3067,0
906.54756,0
906.78842,0
907.02929,0
907.27017,6.93E-06
907.51105,0
907.75194,0
907.99283,0
908.23373,0
908.47464,0
908.71555,1.77E-05
908.95647,0
909.1974,0
909.43833,0
909.67927,0
909.92021,0
910.16116,0
910.40212,4.63E-06
910.64308,4.95E-06
910.88405,0
911.12503,0
911.36601,0
911.607,0
911.84799,3.62E-05
912.08899,0
912.33,0
912.57101,2.15E-05
912.81203,0
913.05305,0
913.29408,0
913.53512,2.05E-06
913.77616,5.53E-06
914.01721,1.36E-05
914.25827,0
914.49933,0
914.74039,0
914.98147,0
915.22255,3.70E-06
915.46363,3.81E-06
915.70472,0
915.94582,0
916.18693,0
916.42804,0
916.66915,0
916.91027,1.32E-05
917.1514,0
917.39254,2.80E-05
917.63368,0
917.87482,0
918.11597,0
918.35713,2.49E-05
918.5983,0
918.83947,0
919.08064,0
919.32183,0
919.56301,4.84E-06
919.80421,0
920.04541,0
920.28662,0
920.52783,0
920.76905,0
921.01027,0
921.2515,0
921.49274,0
921.73398,1.25E-05
921.97523,0
922.21648,0
922.45774,0
922.69901,0
922.94028,0
923.18156,0
923.42285,0
923.66414,0
923.90543,0
924.14673,0
924.38804,0
924.62936,0
924.87068,0
925.112,0
925.35333,0
925.59467,0
925.83602,0
926.07737,2.35E-05
926.31872,0
926.56008,0
926.80145,0
927.04282,2.08E-05
927.2842,0
927.52559,0
927.76698,4.28E-06
928.00837,0
928.24978,2.92E-05
928.49119,0
928.7326,0
928.97402,0
929.21545,0
929.45688,0
929.69832,0
929.93976,0
930.18121,0
930.42267,0
930.66413,3.40E-06
930.90559,0
931.14707,0
931.38855,0
931.63003,0
931.87152,4.56E-06
932.11302,1.38E-05
932.35452,0
932.59603,0
932.83754,9.82E-06
933.07906,0
933.32059,0
933.56212,0
933.80365,0
934.0452,0
934.28674,0
934.5283,1.25E-05
934.76986,0
935.01142,0
935.253,0
935.49457,0
935.73616,0
935.97774,0
936.21934,5.90E-06
936.46094,0
936.70254,0
936.94416,0
937.18577,0
937.4274,0
937.66903,0
937.91066,0
938.1523,0
938.39395,0
938.6356,0
938.87726,1.50E-05
939.11892,0
939.36059,0
939.60226,0
939.84394,0
940.08563,0
940.32732,0
940.56902,5.56E-05
940.81072,0
941.05243,0
941.29414,0
941.53586,4.93E-06
941.77759,0
942.01932,0
942.26106,0
942.5028,0
942.74455,0
942.9863,0
943.22806,0
943.46983,0
943.7116,0
943.95337,0
944.19516,0
944.43694,0.000104675
944.67874,0
944.92054,0
945.16234,7.00E-05
945.40415,0
945.64596,0
945.88779,0
946.12961,5.60E-06
946.37145,0
946.61328,2.52E-05
946.85513,0
947.09698,2.84E-05
947.33883,0
947.58069,0
947.82256,0
948.06443,0
948.3063,0
948.54819,3.16E-05
948.79007,2.79E-05
949.03197,0
949.27387,0
949.51577,0
949.75768,0
949.9996,0
950.24152,0
950.48344,0
950.72538,1.81E-06
950.96731,0
951.20926,0
951.45121,0
951.69316,5.86E-07
951.93512,0
952.17708,0
952.41906,0
952.66103,0
952.90301,0
953.145,4.52E-05
953.38699,0
953.62899,0
953.87099,0
954.113,0
954.35502,0
954.59704,0
954.83906,0
955.08109,0
955.32313,0
955.56517,0
955.80722,1.77E-05
956.04927,0
956.29133,0
956.53339,0
956.77546,7.47E-05
957.01753,0
957.25961,0
957.5017,0
957.74379,0
957.98588,0
958.22798,0
958.47009,1.81E-05
958.7122,1.89E-05
958.95432,0
959.19644,6.65E-06
959.43857,2.07E-05
959.6807,1.12E-05
959.92284,9.21E-06
960.16498,0
960.40713,0
960.64929,0
960.89145,0
961.13361,3.70E-05
961.37578,0
961.61796,0
961.86014,0
962.10233,2.88E-05
962.34452,0
962.58671,8.51E-05
962.82892,1.13E-05
963.07112,0
963.31334,0
963.55556,7.81E-06
963.79778,0
964.04001,0
964.28224,0
964.52448,0
964.76673,1.82E-05
965.00898,0
965.25123,0
965.49349,0
965.73576,0
965.97803,2.17E-06
966.22031,0
966.46259,0
966.70488,0
966.94717,0
967.18946,1.36E-05
967.43177,3.67E-05
967.67408,0
967.91639,0
968.15871,8.70E-06
968.40103,0
968.64336,0
968.88569,4.52E-06
969.12803,0
969.37038,3.98E-06
969.61273,0
969.85508,0
970.09744,0
970.3398,0
970.58218,0
970.82455,0
971.06693,0
971.30932,0
971.55171,0
971.7941,2.69E-05
972.03651,0
972.27891,0
972.52132,0
972.76374,0
973.00616,0
973.24859,0
973.49102,0
973.73346,6.75E-05
973.9759,6.84E-06
974.21835,0
974.4608,0
974.70326,0
974.94572,0
975.18819,0
975.43066,0
975.67314,0
975.91562,0
976.15811,0
976.40061,0
976.6431,0
976.88561,0
977.12812,0
977.37063,0
977.61315,0
977.85567,0
978.0982,0
978.34074,0
978.58327,0
978.82582,1.69E-05
979.06837,3.16E-05
979.31092,0
979.55348,0
979.79604,1.75E-05
980.03861,4.95E-06
980.28119,0
980.52377,0
980.76635,0
981.00894,0
981.25154,1.66E-05
981.49413,0
981.73674,0
981.97935,0
982.22196,0
982.46458,7.96E-05
982.70721,0
982.94983,2.76E-05
983.19247,0
983.43511,1.99E-05
983.67775,0
983.9204,0
984.16306,0
984.40571,0
984.64838,0
984.89105,0
985.13372,0
985.3764,2.82E-05
985.61908,0
985.86177,0
986.10447,0
986.34716,0
986.58987,0
986.83258,0
987.07529,0
987.31801,9.20E-05
987.56073,0
987.80346,0
988.04619,0
988.28893,0
988.53167,0
988.77442,0
989.01717,0
989.25993,0
989.50269,0
989.74546,1.91E-05
989.98823,0
990.23101,0
990.47379,0
990.71657,1.61E-05
990.95937,0
991.20216,0
991.44496,0
991.68777,0
991.93058,0
992.17339,0
992.41621,0
992.65904,0
992.90187,2.41E-05
993.1447,0
993.38754,0
993.63039,0
993.87324,0
994.11609,0
994.35895,0
994.60181,0
994.84468,5.33E-05
995.08755,0
995.33043,0
995.57331,0
995.8162,0
996.05909,1.25E-05
996.30199,0
996.54489,0
996.7878,8.67E-06
997.03071,0
997.27363,0
997.51655,0
997.75947,0
998.0024,0
998.24534,0
998.48828,2.24E-05
998.73122,0
998.97417,3.16E-06
999.21712,0
999.46008,3.44E-05
999.70304,0
999.94601,0
1000.18898,0
1000.43196,0
1000.67494,0
1000.91793,0
1001.16092,3.83E-05
1001.40392,0
1001.64692,2.99E-05
1001.88992,5.90E-05
1002.13293,0
1002.37595,0
1002.61897,3.72E-05
1002.86199,0
1003.10502,0
1003.34805,8.64E-05
1003.59109,0
1003.83413,0
1004.07718,3.98E-05
1004.32023,0
1004.56329,3.01E-05
1004.80635,3.86E-05
1005.04941,1.16E-06
1005.29248,0
1005.53556,0
1005.77864,0
1006.02172,0
1006.26481,0
1006.5079,0
1006.751,0
1006.9941,0
1007.23721,3.75E-05
1007.48032,0
1007.72344,0
1007.96656,0
1008.20968,4.20E-05
1008.45281,0
1008.69595,5.98E-05
1008.93909,2.96E-05
1009.18223,0
1009.42538,0
1009.66853,0
1009.91169,0
1010.15485,0
1010.39801,0
1010.64118,0
1010.88436,0
1011.12754,0.000180485
1011.37072,2.35E-05
1011.61391,0
1011.8571,3.04E-05
1012.1003,0
1012.3435,0
1012.58671,0
1012.82992,0
1013.07314,0
1013.31636,0
1013.55958,0
1013.80281,0
1014.04604,0
1014.28928,0
1014.53252,0
1014.77577,0
1015.01902,0
1015.26228,0
1015.50554,2.78E-05
1015.7488,6.18E-05
1015.99207,0
1016.23535,0
1016.47862,0.000127082
1016.72191,0
1016.96519,5.04E-05
1017.20848,0
1017.45178,0
1017.69508,0
1017.93838,0
1018.18169,0
1018.425,0
1018.66832,0
1018.91164,0
1019.15497,0
1019.3983,0
1019.64164,0
1019.88498,0
1020.12832,0
1020.37167,0
1020.61502,0
1020.85838,0
1021.10174,0
1021.3451,0
1021.58847,0
1021.83185,0
1022.07523,0
1022.31861,0
1022.562,0
1022.80539,0
1023.04878,0
1023.29218,0
1023.53559,0
1023.779,0
1024.02241,0
1024.26583,0
1024.50925,0
1024.75268,0
1024.99611,0
1025.23954,0
1025.48298,0
1025.72642,0
1025.96987,0
1026.21332,0
1026.45678,0
1026.70024,0
1026.9437,0
1027.18717,0
1027.43064,0
